bands   = 432
header offset = 0
file type = ENVI Standard
data type = 4
interleave = bip
sensor type = Unknown
byte order = 1
wavelength units = Unknown
z plot titles = {Wavelength (micrometers), Radiance}
wavelength = {
 1.020750, 1.030210, 1.039670, 1.049130, 1.058590, 1.068050, 1.077510,
 1.086960, 1.096420, 1.105880, 1.115340, 1.124800, 1.134260, 1.143720,
 1.153180, 1.162640, 1.172100, 1.181560, 1.191020, 1.200480, 1.209940,
 1.219400, 1.228850, 1.238310, 1.247770, 1.257230, 1.266690, 1.276150,
 1.285610, 1.295070, 1.304530, 1.313990, 1.323450, 1.332910, 1.342370,
 1.351830, 1.361280, 1.370740, 1.380200, 1.389660, 1.399120, 1.408580,
 1.418040, 1.427500, 1.436960, 1.446420, 1.455880, 1.465340, 1.474800,
 1.484260, 1.493720, 1.503170, 1.512630, 1.522090, 1.531550, 1.541010,
 1.550470, 1.559930, 1.569390, 1.578850, 1.588310, 1.597770, 1.607230,
 1.616690, 1.626150, 1.635610, 1.645060, 1.654520, 1.663980, 1.673440,
 1.682900, 1.692360, 1.701820, 1.711280, 1.720740, 1.730200, 1.739660,
 1.749120, 1.758580, 1.768040, 1.777490, 1.786950, 1.796410, 1.805870,
 1.815330, 1.824790, 1.834250, 1.843710, 1.853170, 1.862630, 1.872090,
 1.881550, 1.891010, 1.900470, 1.909930, 1.919380, 1.928840, 1.938300,
 1.947760, 1.957220, 1.966680, 1.976140, 1.985600, 1.995060, 2.004520,
 2.013980, 2.023440, 2.032900, 2.042360, 2.051820, 2.061270, 2.070730,
 2.080190, 2.089650, 2.099110, 2.108570, 2.118030, 2.127490, 2.136950,
 2.146410, 2.155870, 2.165330, 2.174790, 2.184250, 2.193710, 2.203160,
 2.212620, 2.222080, 2.231540, 2.241000, 2.250460, 2.259920, 2.269380,
 2.278840, 2.288300, 2.297760, 2.307220, 2.316680, 2.326140, 2.335590,
 2.345050, 2.354510, 2.363970, 2.373430, 2.382890, 2.392350, 2.401810,
 2.411270, 2.420730, 2.430190, 2.439650, 2.449110, 2.458570, 2.468030,
 2.477480, 2.486940, 2.496400, 2.505860, 2.515320, 2.524780, 2.534240,
 2.543700, 2.553160, 2.562620, 2.572080, 2.581540, 2.591000, 2.600460,
 2.609920, 2.619370, 2.628830, 2.638290, 2.647750, 2.657210, 2.666670,
 2.676130, 2.685590, 2.695050, 2.704510, 2.713970, 2.723430, 2.732890,
 2.742350, 2.751800, 2.761260, 2.770720, 2.780180, 2.789640, 2.799100,
 2.808560, 2.818020, 2.827480, 2.836940, 2.846400, 2.855860, 2.865320,
 2.874780, 2.884240, 2.893690, 2.903150, 2.912610, 2.922070, 2.931530,
 2.940990, 2.950450, 2.959910, 2.969370, 2.978830, 2.988290, 2.997750,
 3.007210, 3.016670, 3.026130, 3.035580, 3.045040, 3.054500, 3.063960,
 3.073420, 3.082880, 3.092340, 3.101800, 3.111260, 3.120720, 3.130180,
 3.139640, 3.149100, 3.158560, 3.168010, 3.177470, 3.186930, 3.196390,
 3.205850, 3.215310, 3.224770, 3.234230, 3.243690, 3.253150, 3.262610,
 3.272070, 3.281530, 3.290990, 3.300450, 3.309900, 3.319360, 3.328820,
 3.338280, 3.347740, 3.357200, 3.366660, 3.376120, 3.385580, 3.395040,
 3.404500, 3.413960, 3.423420, 3.432880, 3.442340, 3.451790, 3.461250,
 3.470710, 3.480170, 3.489630, 3.499090, 3.508550, 3.518010, 3.527470,
 3.536930, 3.546390, 3.555850, 3.565310, 3.574770, 3.584230, 3.593680,
 3.603140, 3.612600, 3.622060, 3.631520, 3.640980, 3.650440, 3.659900,
 3.669360, 3.678820, 3.688280, 3.697740, 3.707200, 3.716660, 3.726110,
 3.735570, 3.745030, 3.754490, 3.763950, 3.773410, 3.782870, 3.792330,
 3.801790, 3.811250, 3.820710, 3.830170, 3.839630, 3.849090, 3.858550,
 3.868000, 3.877460, 3.886920, 3.896380, 3.905840, 3.915300, 3.924760,
 3.934220, 3.943680, 3.953140, 3.962600, 3.972060, 3.981520, 3.990980,
 4.000440, 4.009890, 4.019350, 4.028810, 4.038270, 4.047730, 4.057190,
 4.066650, 4.076110, 4.085570, 4.095030, 4.104490, 4.113950, 4.123410,
 4.132870, 4.142320, 4.151780, 4.161240, 4.170700, 4.180160, 4.189620,
 4.199080, 4.208540, 4.218000, 4.227460, 4.236920, 4.246380, 4.255840,
 4.265300, 4.274760, 4.284210, 4.293670, 4.303130, 4.312590, 4.322050,
 4.331510, 4.340970, 4.350430, 4.359890, 4.369350, 4.378810, 4.388270,
 4.397730, 4.407190, 4.416650, 4.426100, 4.435560, 4.445020, 4.454480,
 4.463940, 4.473400, 4.482860, 4.492320, 4.501780, 4.511240, 4.520700,
 4.530160, 4.539620, 4.549080, 4.558540, 4.567990, 4.577450, 4.586910,
 4.596370, 4.605830, 4.615290, 4.624750, 4.634210, 4.643670, 4.653130,
 4.662590, 4.672050, 4.681510, 4.690970, 4.700420, 4.709880, 4.719340,
 4.728800, 4.738260, 4.747720, 4.757180, 4.766640, 4.776100, 4.785560,
 4.795020, 4.804480, 4.813940, 4.823400, 4.832860, 4.842310, 4.851770,
 4.861230, 4.870690, 4.880150, 4.889610, 4.899070, 4.908530, 4.917990,
 4.927450, 4.936910, 4.946370, 4.955830, 4.965290, 4.974750, 4.984200,
 4.993660, 5.003120, 5.012580, 5.022040, 5.031500, 5.040960, 5.050420,
 5.059880, 5.069340, 5.078800, 5.088260, 5.097720}

